
  Data: Real and imaginary indices of refraction for water, ice,
  sodium chloride, sea salt, water soluble aerosol, ammonium sulfate,
  carbonaceous aerosol, volcanic dust, sulfuric acid, meteoric dust,
  quartz, hematite, sand, and dust-like aerosol. The tabulations
  start and 0.2 microns and extend out to 40 microns (or to longer
  wavelengths). These indices were used to generate the aerosol models
  which are incorporated into the LOWTRAN, MODTRAN, and FASCODE computer
  codes.

  References: The data were tabulated by E. P. Shettle of the Naval
  Research Laboratory, who provides the following references and notes.

------------------------------------------------------------------------
Indices of Refraction for Atmospheric Particulates

     This appendix gives indices of refraction for a wide range
of atmospheric particulates.  The values were obtained from an
extensive review of the scientific literature.  Table A-1 lists
the substances for which index of refraction data have been
tabulated.  (The references corresponding to the reference
numbers in Table A-1 are listed at the end of this appendix.) 
Tables A-2 through A-6 give the indices of refraction for the
substances listed in Table A-1.  In these tables, the complex
index of refraction is represented by m = n + ik.  

 Table A-1. 
 Substances for Which Indices of Refraction Have Been
 Tabulated in This Appendix

____________________________________________________________
                                                            
                   REFERENCE                                
 SUBSTANCE          NUMBER            COMMENT               
____________________________________________________________
  
		   TABLE A2
  ---------------------------------------------------
 Water             A-1, A-2           A-2 data is for a     
                                      temperature of 10 C   
                                                            
 Ice               A-3, A-4                                 
                                                            
 Sodium Chloride   A-5                Crystalline form      
                                                            
 Sea Salt          A-6, A-7, A-8      Crystalline form      
  ----------------------------------------------------                                                            

		   TABLE A3
  ---------------------------------------------------                                                            
 Water Soluble     A-7, A-8, A-9                            
                                                            
                                                            
 Ammonium Sulfate  A-10               Crystalline form      
                                                            
 Carbonaceous      A-8, A-11                                
 ----------------------------------------------------                                                            

		   TABLE A4
  ---------------------------------------------------                    
 Volcanic Dust     A-12                                     
                                                            
 Sulfuric Acid     A-13               75% solution with H2O.
                                      Values are given for  
                                      temperatures of 215   
                                      and 300 K             
                                                            
 Meteoric Dust     A-3, A-14                                
 ----------------------------------------------------                                                            

		   TABLE A5
  ---------------------------------------------------                                                                                
 Quartz            A-15, A-16, A-17,  Anisotropic material. 
                   A-18, A-19         Values are given for  
                                      the O and E rays      
                                                            
 Hematite          A-19, A-20, A-21,  Anisotropic material. 
 (Iron Oxide)      A-22, A-23         Values are given for  
                                      the O and E rays      
 ----------------------------------------------------                                                            

		   TABLE A6
  ---------------------------------------------------                                                                                
 Sand              A-19               Internal mixture of   
                                      hematite and quartz.  
                                      Hematite is 10% by    
                                      volume                
                                                            
 Dust-Like         A-7, A-8, A-9                            
____________________________________________________________


A-1.  Hale, G. M. and Querry, M. R. (1973) Optical constants of
water in the 200 nm to 200 um wavelength region, Appl. Opt.,
12:555-563.

A-2.  Ray, P. S. (1972) Broadband complex refractive indices of
ice and water, Appl. Opt., 11:1836-1844.

A-3.  Fenn, R. W., Clough, S. A., Gallery, W. O., Good, R. E.,
Kneizys, F. X., Mill, J. D., Rothman, L. S. and Shettle, E.P.
(1985) Optical and infrared properties of the atmosphere, Chapter
18 in Handbook of Geophysics and the Space Environment, Edited by
A.S. Jursa, Air Force Geophysics Laboratory, Hanscom AFB, MA.

A-4.  Warren, S. G. (1984) Optical constants of ice from the
ultraviolet to the microwave, Appl. Opt., 23:1206-1225.

A-5.  Eldridge, J. E. and Palik, E. D. (1985) Sodium Chloride, in
Handbook of Optical Constants of Solids, Edited by E. D. Palik,
Academic Press, Inc., Orlando, FL, 775-793.

A-6.  Dorsey, N. E. (1940) Properties of ordinary water-substance
in all its phases: water vapor and all the ices, American
Chemistry Society, Monograph Series, Reinhold Publishing Corp.,
New York, NY, 332-338.

A-7.  Volz, F. E. (1972) Infrared refractive index of atmospheric
aerosol substance, Appl. Opt., 11:755-759.

A-8.  Shettle, E. P. and Fenn, R. W. (1979)  Models for the
Aerosols of the Lower Atmosphere and the Effects of Humidity
Variations on Their Optical Properties, AFGL-TR-79-0214, 20 Sept
1979, ADA085951.

A-9.  Volz, F. E. (1972) Infrared absorption by atmospheric
aerosol substance, J. Geophys. Res., 77:1017-1031.

A-10. Toon, O. B., Pollock, J. B. and Khare, B. N. (1976) The
optical constants of several atmospheric aerosols species:
ammonium sulfate, aluminum oxide and sodium chloride, J. Geophys.
Res., 81:5733-5748.

A-11. Twitty, J. T. and Weinman, J. A. (1971) Radiative
properties of carbonaceous aerosols, J. Appl. Meteor.,
10:725-731.

A-12. Volz, F. E. (1973) Infrared optical constants of ammonium
sulfate, Sahara dust, volcanic pumice and fly ash, Appl. Opt.,
12:564-568.

A-13. Hummel, J. R., Shettle, E. P. and Longtin, D. R. (1988) A
New Background Stratospheric Aerosol Model for Use in Atmospheric
Radiation Models, AFGL-TR-88-0166, Air Force Geophysics
Laboratory, Hanscom AFB, MA, August 1988.

A-14. Shettle, E. P. and Volz, F. E. (1976) Optical constants for
 meteoric dust aerosol models, in Atmospheric Aerosols: Their
Optical Properties and Effects, a Topical Meeting on Atmospheric
Aerosols sponsored by the Optical Society of America and NASA
Langley Research Center, Williamsburg, VA, 13-15 Dec. 1976. NASA
Conference Publication CP 2004.

A-15. Gray, D. C. (1963), American Institute of Physics Handbook,
McGraw-Hill, New York, NY, 1963, 2nd Edition.

A-16. Drummond, D. G. (1936) Absorption coefficients of crystal
quartz in the infrared, Proc. Roy. Soc. (London)-Series A,
153:328-338.

A-17. Spitzer, W. G. and Kleinman, D. A. (1961) Infrared lattice
bands of quartz, Phys. Rev., 121:1324-1335.

A-18. Philipp, H. R. (1985) Silicon dioxide (SiO2), type-
(crystalline), in Handbook of Optical Constants of Solids, Edited
by E. D. Palik, Academic Press, Inc., Orlando, FL, 719-747.

A-19. Longtin, D. R., Shettle, E. P., Hummel, J. R. and Pryce, J.
D., (1988) A Wind Dependent Desert Aerosol Model: Radiative
Properties, AFGL-TR-88-0112, Air Force Geophysics Laboratory,
Hanscom AFB, MA, April 1988.

A-20. Galuza, A. I., Eremenko, V. V. and Kirichenko, A. P. (1979)
Analysis of hematite reflection spectrum by the Kramers-Kronig
method, Sov. Phys. Solid State, 21:654-656.

A-21. Kerker, M., Scheiner, P., Cooke, D. D. and Kratohvil, J.P.
(1979) Absorption index and color of colloidal hematite, J.
Colloid. Interface Sci., 71:176-187.

A-22. Steyer, T. R. (1974) Infrared optical properties of some
solids of possible interest in astronomy and atmospheric physics,
Graduate Thesis, Department of Physics, University of Arizona.

A-23. Onari, S., Arai, T. and Kudo, K. (1977) Infrared lattice
vibrations and dielectric dispersion in - Fe2O3, Phys. Rev. B,
16:1717-1721. 

------------------------------------------------------------------------

  Format: wavelength (microns), real and imaginary indices of refraction.
  Tables A2-A6 are in free format.

------------------------------------------------------------------------

                                   Table A2
_____________________________________________________________________________
   WAVELENGTH WATER             ICE              SODIUM CHLORIDE  SEA SALT
   microns    n     k           n     k          n      k         n      k
______________________________________________________________________________

     0.200   1.396  1.10e-7    1.394  1.50e-8    1.790  3.1e-9    1.510  1.0e-4 
     0.250   1.362  3.35e-8    1.351  8.60e-9    1.655  2.3e-9    1.510  5.0e-6 
     0.300   1.349  1.60e-8    1.334  5.50e-9    1.607  1.5e-9    1.510  2.0e-6 
     0.337   1.345  8.45e-9    1.326  4.50e-9    1.587  8.7e-10   1.510  4.0e-7 
     0.400   1.339  1.86e-9    1.320  2.71e-9    1.567  3.8e-10   1.500  3.0e-8 
     0.488   1.335  9.69e-10   1.313  1.75e-9    1.553  1.1e-10   1.500  2.0e-8 
     0.515   1.334  1.18e-9    1.312  2.19e-9    1.550  4.9e-11   1.500  1.0e-8 
     0.550   1.333  1.96e-9    1.311  3.11e-9    1.547  6.8e-11   1.500  1.0e-8 
     0.633   1.332  1.46e-8    1.308  1.09e-8    1.542  1.1e-10   1.490  2.0e-8 
     0.694   1.331  3.05e-8    1.306  2.62e-8    1.539  1.5e-10   1.490  1.0e-7 
     0.860   1.329  3.29e-7    1.303  2.15e-7    1.534  2.4e-10   1.480  3.0e-6 
     1.060   1.326  4.18e-6    1.300  1.96e-6    1.531  3.5e-10   1.470  2.0e-4 
     1.300   1.323  3.69e-5    1.295  1.32e-5    1.529  4.8e-10   1.470  4.0e-4 
     1.536   1.318  9.97e-5    1.290  6.10e-4    1.528  6.1e-10   1.460  6.0e-4 
     1.800   1.312  1.15e-4    1.282  1.13e-4    1.527  7.5e-10   1.450  8.0e-4 
     2.000   1.306  1.10e-3    1.273  1.61e-3    1.527  8.6e-10   1.450  0.0010
     2.250   1.292  3.90e-4    1.256  2.13e-4    1.526  1.0e-09   1.440  0.0020
     2.500   1.261  0.00174    1.225  7.95e-4    1.525  1.1e-9    1.430  0.0040
     2.700   1.188  0.0190     1.163  0.00293    1.525  1.2e-9    1.400  0.0070
     3.000   1.371  0.272      1.045  0.429      1.524  1.4e-9    1.610  0.0100
     3.200   1.478  0.0924     1.652  0.283      1.524  1.5e-9    1.490  0.0030
     3.392   1.422  0.0204     1.510  0.0401     1.523  1.6e-9    1.480  0.0020
     3.500   1.400  0.0094     1.453  0.0161     1.523  1.65e-9   1.480  0.0016
     3.750   1.369  0.0035     1.391  0.0070     1.522  1.8e-9    1.470  0.0014
     4.000   1.351  0.0046     1.361  0.0100     1.522  1.8e-9    1.480  0.0014
     4.500   1.332  0.0134     1.340  0.0287     1.520  1.8e-9    1.490  0.0014
     5.000   1.325  0.0124     1.327  0.0120     1.519  1.7e-9    1.470  0.0025
     5.500   1.298  0.0116     1.299  0.0217     1.517  2.6e-9    1.420  0.0036
     6.000   1.265  0.107      1.296  0.0647     1.515  4.9e-9    1.410  0.0110
     6.200   1.363  0.0880     1.313  0.0683     1.515  5.8e-9    1.600  0.022
     6.500   1.339  0.0392     1.320  0.0559     1.513  7.2e-9    1.460  0.005
     7.200   1.312  0.0321     1.318  0.0544     1.510  1.0e-8    1.420  0.007
     7.900   1.294  0.0339     1.313  0.0479     1.507  1.4e-8    1.400  0.013
     8.200   1.286  0.0351     1.306  0.0390     1.505  1.5e-8    1.420  0.020
     8.500   1.278  0.0367     1.291  0.0391     1.504  1.6e-8    1.480  0.026
     8.700   1.272  0.0379     1.282  0.0400     1.503  1.7e-8    1.600  0.030
     9.000   1.262  0.0399     1.269  0.0429     1.501  1.9e-8    1.650  0.028
     9.200   1.255  0.0415     1.261  0.0446     1.500  2.0e-8    1.610  0.026
     9.500   1.243  0.0444     1.245  0.0459     1.498  3.0e-8    1.580  0.018
     9.800   1.229  0.0479     1.219  0.0470     1.496  4.4e-8    1.560  0.016
    10.000   1.218  0.0508     1.197  0.0510     1.495  5.3e-8    1.540  0.015
    10.591   1.179  0.0674     1.098  0.131      1.491  8.0e-8    1.500  0.014
    11.000   1.153  0.0968     1.093  0.239      1.488  1.3e-7    1.480  0.014
    11.500   1.126  0.142      1.176  0.360      1.484  3.3e-7    1.480  0.014
    12.500   1.123  0.259      1.387  0.422      1.476  1.4e-6    1.420  0.016
    13.000   1.146  0.305      1.472  0.389      1.471  2.8e-6    1.410  0.018
    14.000   1.210  0.370      1.569  0.283      1.462  8.8e-6    1.410  0.023
    14.800   1.258  0.396      1.579  0.191      1.454  2.3e-5    1.430  0.030
    15.000   1.270  0.402      1.572  0.177      1.451  2.7e-5    1.450  0.035
    16.400   1.346  0.427      1.531  0.125      1.435  7.6e-5    1.560  0.090
    17.200   1.386  0.429      1.534  0.107      1.425  1.3e-4    1.740  0.120
    18.000   1.423  0.426      1.522  0.0839     1.414  2.0e-4    1.780  0.130
    18.500   1.443  0.421      1.510  0.0760     1.406  2.9e-4    1.770  0.135
    20.000   1.480  0.393      1.504  0.0670     1.382  6.2e-4    1.760  0.152
    21.300   1.491  0.379      1.481  0.0385     1.360  9.9e-4    1.760  0.165
    22.500   1.506  0.370      1.455  0.0291     1.330  0.0014    1.760  0.180
    25.000   1.531  0.356      1.414  0.0299     1.270  0.0035    1.760  0.205
    27.900   1.549  0.339      1.358  0.0490     1.170  0.0100    1.770  0.275
    30.000   1.551  0.328      1.325  0.0650     1.080  0.026     1.770  0.300
    35.000   1.532  0.336      1.226  0.155      0.780  0.140     1.760  0.500
    40.000   1.519  0.385      1.202  0.344      0.580  0.660     1.740  1.00
    45.000   1.536  0.449      1.299  0.601      0.270  1.08      0.000  0.00
    50.000   1.587  0.514      1.629  0.543      0.140  1.99      0.000  0.00 
    55.000   1.645  0.551      1.767  0.420      0.310  3.46      0.000  0.00
    60.000   1.703  0.587      1.585  0.390      4.520  6.94      0.000  0.00
    65.000   1.762  0.582      1.748  0.490      5.280  0.761     0.000  0.00
    70.000   1.821  0.576      1.869  0.399      3.920  0.271     0.000  0.00
    80.000   1.920  0.520      1.903  0.235      3.170  0.123     0.000  0.00
    90.000   1.979  0.490      1.856  0.165      2.870  0.0968    0.000  0.00
   100.000   2.037  0.460      1.832  0.139      2.740  0.0870    0.000  0.00
   110.000   2.060  0.440      1.821  0.126      2.640  0.0790    0.000  0.00
   120.000   2.082  0.420      1.819  0.120      2.590  0.0770    0.000  0.00
   135.000   2.094  0.410      1.819  0.108      2.540  0.0720    0.000  0.00
   150.000   2.106  0.400      1.823  0.0962     2.500  0.0640    0.000  0.00
   165.000   2.109  0.410      1.829  0.0846     2.480  0.0560    0.000  0.00
   180.000   2.113  0.420      1.832  0.0650     2.470  0.0520    0.000  0.00
   200.000   2.117  0.430      1.827  0.0452     2.450  0.0470    0.000  0.00
   250.000   2.120  0.460      1.807  0.0222     2.440  0.0410    0.000  0.00
   300.000   2.121  0.490      1.795  0.0153     2.430  0.0300    0.000  0.00
   400.000   2.142  0.530      1.786  0.0125     2.430  0.0270    0.000  0.00
   500.000   2.177  0.580      1.783  0.0106     2.430  0.0240    0.000  0.00
   750.000   2.291  0.650      1.782  0.0080     2.430  0.0120    0.000  0.00
  1000.000   2.437  0.730      1.781  0.0065     2.430  0.0080    0.000  0.00
  1500.000   2.562  0.960      1.782  0.0049     2.430  0.0061    0.000  0.00
  2000.000   2.705  1.19       1.782  0.0040     2.430  0.0047    0.000  0.00
  3000.000   3.013  1.59       1.782  0.0030     2.430  0.0029    0.000  0.00
  5000.000   3.627  2.14       1.783  0.0021     2.430  0.0024    0.000  0.00
 10000.000   4.954  2.79       1.784  0.0013     2.430  5.6e-4    0.000  0.00
 20000.000   6.728  2.87       1.784  7.9e-4     2.430  4.1e-4    0.000  0.00
 30000.000   7.682  2.51       1.784  5.9e-4     2.430  2.6e-4    0.000  0.00
 _______________________________________________________________________________
      


                                   Table A3
      ________________________________________________________________________
                                                          
       WAVELENGTH    WATER SOLUBLE     AMMONIUM SULFATE      CARBONACEOUS    
          microns    n      k            n     k              n     k     
      ________________________________________________________________________
                                                          
          0.200      1.530  0.070       1.550  1.0e-7        1.500  0.350    
          0.250      1.530  0.030       1.550  1.0e-7        1.620  0.450    
          0.300      1.530  0.008       1.540  1.0e-7        1.740  0.470    
          0.337      1.530  0.005       1.540  1.0e-7        1.750  0.470    
          0.400      1.530  0.005       1.540  1.0e-7        1.750  0.460    
          0.488      1.530  0.005       1.540  1.0e-7        1.750  0.450    
          0.515      1.530  0.005       1.530  1.0e-7        1.750  0.450    
          0.550      1.530  0.006       1.530  1.0e-7        1.750  0.440    
          0.633      1.530  0.006       1.520  1.0e-7        1.750  0.430    
          0.694      1.530  0.007       1.520  1.0e-7        1.750  0.430    
          0.860      1.520  0.012       1.520  1.5e-7        1.750  0.430    
          1.060      1.520  0.017       1.510  1.8e-6        1.750  0.440    
          1.300      1.510  0.020       1.500  1.7e-5        1.760  0.450    
          1.536      1.510  0.023       1.490  7.7e-5        1.770  0.460    
          1.800      1.460  0.017       1.480  7.6e-5        1.790  0.480    
          2.000      1.420  0.008       1.470  0.0010        1.800  0.490    
          2.250      1.420  0.010       1.460  0.0011        1.810  0.500    
          2.500      1.420  0.012       1.440  3.5e-4        1.820  0.510    
          2.700      1.400  0.055       1.410  0.0020        1.830  0.520    
          3.000      1.420  0.022       1.300  0.096         1.840  0.540    
          3.200      1.430  0.008       1.490  0.260         1.860  0.540    
          3.392      1.430  0.007       1.610  0.170         1.870  0.550    
          3.500      1.450  0.005       1.610  0.140         1.880  0.560    
          3.750      1.452  0.004       1.580  0.036         1.900  0.570    
          4.000      1.455  0.005       1.550  0.0140        1.920  0.580    
          4.500      1.460  0.013       1.500  0.0073        1.940  0.590    
          5.000      1.450  0.012       1.460  0.0065        1.970  0.600    
          5.500      1.440  0.018       1.410  0.008         1.990  0.610    
          6.000      1.410  0.023       1.350  0.013         2.020  0.620    
          6.200      1.430  0.027       1.310  0.018         2.030  0.625    
          6.500      1.460  0.033       1.190  0.049         2.040  0.630    
          7.200      1.400  0.070       1.930  0.540         2.060  0.650    
          7.900      1.200  0.065       1.360  0.075         2.120  0.670    
          8.200      1.010  0.100       1.160  0.120         2.130  0.680    
          8.500      1.300  0.215       0.900  0.290         2.150  0.690    
          8.700      2.400  0.290       0.710  0.650         2.160  0.690    
          9.000      2.560  0.370       0.980  1.70          2.170  0.700    
          9.200      2.200  0.420       2.100  1.90          2.180  0.700    
          9.500      1.950  0.160       2.700  0.590         2.190  0.710    
          9.800      1.870  0.095       2.390  0.230         2.200  0.715    
         10.000      1.820  0.090       2.190  0.130         2.210  0.720    
         10.591      1.760  0.070       1.970  0.056         2.220  0.730    
         11.000      1.720  0.050       1.900  0.043         2.230  0.730    
         11.500      1.670  0.047       1.840  0.027         2.240  0.740    
         12.500      1.620  0.053       1.750  0.020         2.270  0.750    
         13.000      1.620  0.055       1.720  0.020         2.280  0.760    
         14.000      1.560  0.073       1.650  0.020         2.310  0.775    
         14.800      1.440  0.100       1.560  0.024         2.330  0.790    
         15.000      1.420  0.200       1.530  0.026         2.330  0.790    
         16.400      1.750  0.160       2.770  0.580         2.360  0.810    
         17.200      2.080  0.240       2.130  0.058         2.380  0.820    
         18.000      1.980  0.180       1.820  0.025         2.400  0.825    
         18.500      1.850  0.170       1.760  0.020         2.410  0.830    
         20.000      2.120  0.220       1.690  0.020         2.450  0.850    
         21.300      2.060  0.230       1.650  0.025         2.460  0.860    
         22.500      2.000  0.240       1.610  0.032         2.480  0.870    
         25.000      1.880  0.280       1.550  0.050         2.510  0.890    
         27.900      1.840  0.290       1.450  0.094         2.540  0.910    
         30.000      1.820  0.300       1.350  0.170         2.570  0.930    
         35.000      1.920  0.400       1.420  0.580         2.630  0.970    
         40.000      1.860  0.500       2.140  1.12          2.690  1.000    
_______________________________________________________________________
      

                                   Table A4
____________________________________________________________________________
 WAVELENGTH  VOLCANIC DUST  H2SO4 (215 K)     H2SO4 (300 K)     METEORIC DUST   
 microns    n      k        n      k          n      k          n      k      
_____________________________________________________________________________
                                                                                              
  0.200     1.500  0.070    1.526  1.07e-8    1.498  1.00e-8    1.515  1.23e-5  
  0.250     1.500  0.030    1.512  1.07e-8    1.484  1.00e-8    1.515  2.41e-5  
  0.300     1.500  0.010    1.496  1.07e-8    1.469  1.00e-8    1.515  4.18e-5  
  0.337     1.500  0.008    1.484  1.07e-8    1.459  1.00e-8    1.514  5.94e-5  
  0.400     1.500  0.008    1.464  1.07e-8    1.440  1.00e-8    1.514  9.95e-5  
  0.488     1.500  0.008    1.456  1.07e-8    1.432  1.00e-8    1.513  1.81e-4  
  0.515     1.500  0.008    1.454  1.07e-8    1.431  1.00e-8    1.513  2.13e-4  
  0.550     1.500  0.008    1.454  1.07e-8    1.430  1.00e-8    1.513  2.61e-4  
  0.633     1.500  0.008    1.452  1.56e-8    1.429  1.47e-8    1.512  3.99e-4  
  0.694     1.500  0.008    1.452  2.12e-8    1.428  1.99e-8    1.511  5.30e-4  
  0.860     1.500  0.008    1.448  1.90e-7    1.425  1.79e-7    1.509  0.00102  
  1.060     1.500  0.008    1.443  1.60e-6    1.420  1.50e-6    1.506  0.00195  
  1.300     1.500  0.008    1.432  1.06e-5    1.410  1.00e-5    1.501  0.00372  
  1.536     1.490  0.008    1.425  1.46e-4    1.403  1.37e-4    1.495  0.00634  
  1.800     1.480  0.008    1.411  5.85e-4    1.390  5.50e-4    1.488  0.0106   
  2.000     1.460  0.008    1.405  0.00134    1.384  0.00126    1.482  0.0151   
  2.250     1.460  0.008    1.390  0.00192    1.370  0.00180    1.474  0.0224   
  2.500     1.460  0.009    1.362  0.00399    1.344  0.00376    1.467  0.0318   
  2.700     1.460  0.010    1.319  0.00604    1.303  0.00570    1.462  0.0410   
  3.000     1.480  0.013    1.288  0.0875     1.293  0.0955     1.456  0.0573   
  3.200     1.480  0.014    1.292  0.144      1.311  0.135      1.454  0.0694   
  3.392     1.490  0.012    1.366  0.178      1.352  0.159      1.454  0.0815   
  3.500     1.490  0.011    1.383  0.179      1.376  0.158      1.455  0.0882   
  3.750     1.500  0.009    1.420  0.165      1.396  0.131      1.459  0.103    
  4.000     1.500  0.007    1.435  0.151      1.398  0.126      1.466  0.116    
  4.500     1.520  0.0075   1.427  0.156      1.385  0.120      1.485  0.131    
  5.000     1.510  0.0090   1.411  0.137      1.360  0.121      1.500  0.135    
  5.500     1.510  0.012    1.376  0.195      1.337  0.183      1.508  0.132    
  6.000     1.480  0.015    1.485  0.195      1.425  0.195      1.507  0.126    
  6.200     1.460  0.018    1.485  0.147      1.424  0.165      1.504  0.124    
  6.500     1.450  0.024    1.421  0.0841     1.370  0.128      1.497  0.121    
  7.200     1.440  0.045    1.235  0.166      1.210  0.176      1.469  0.119    
  7.900     1.380  0.072    1.148  0.461      1.140  0.488      1.422  0.130    
  8.200     1.340  0.097    1.220  0.709      1.200  0.645      1.395  0.142    
  8.500     1.620  0.121    1.457  0.840      1.370  0.755      1.363  0.162    
  8.700     1.950  0.170    1.753  0.817      1.530  0.772      1.339  0.182    
  9.000     2.200  0.215    1.767  0.604      1.650  0.633      1.302  0.228    
  9.200     2.230  0.240    1.704  0.557      1.600  0.586      1.281  0.273    
  9.500     2.250  0.275    1.791  0.736      1.670  0.750      1.272  0.360    
  9.800     2.280  0.304    2.128  0.465      1.910  0.680      1.310  0.450    
 10.000     2.300  0.320    2.094  0.306      1.890  0.455      1.355  0.488    
 10.591     2.200  0.305    1.805  0.210      1.720  0.340      1.419  0.547    
 11.000     2.150  0.270    1.823  0.433      1.670  0.485      1.509  0.691    
 11.500     2.050  0.240    2.024  0.199      1.890  0.374      1.847  0.634    
 12.500     1.800  0.155    1.808  0.110      1.740  0.198      1.796  0.252    
 13.000     1.760  0.148    1.790  0.112      1.690  0.195      1.711  0.219    
 14.000     1.700  0.145    1.739  0.134      1.640  0.195      1.641  0.217    
 14.800     1.650  0.157    1.663  0.163      1.610  0.205      1.541  0.198    
 15.000     1.650  0.170    1.656  0.181      1.590  0.211      1.510  0.206    
 16.400     1.750  0.200    1.692  0.463      1.520  0.414      1.478  0.467    
 17.200     1.850  0.240    2.003  0.616      1.724  0.590      1.441  0.400    
 18.000     2.000  0.305    2.207  0.166      1.950  0.410      1.354  0.557    
 18.500     2.100  0.325    2.041  0.0940     1.927  0.302      1.389  0.705    
 20.000     2.250  0.318    1.895  0.0558     1.810  0.230      1.803  0.765    
 21.300     2.400  0.290    1.809  0.146      1.790  0.250      1.797  0.556    
 22.500     2.500  0.350    1.942  0.187      1.820  0.290      1.661  0.592    
 25.000     2.600  0.400    1.993  0.0274     1.840  0.240      1.983  0.861    
 27.900     2.500  0.430    0.000  0.000      1.780  0.250      2.023  0.666    
 30.000     2.400  0.450    0.000  0.000      1.730  0.290      2.149  0.665    
 35.000     2.300  0.520    0.000  0.000      1.720  0.520      2.146  0.380    
 40.000     2.250  0.650    0.000  0.000      1.940  0.630      1.979  0.359    
 50.000     0.000  0.000    0.000  0.000      2.010  0.650      0.000  0.000    
____________________________________________________________________________

      
                                   Table A5
____________________________________________________________________________
                                                           
 WAVELENGTH QUARTZ O-RAY      QUARTZ E-RAY     HEMATITE O-RAY    HEMATITE E-RAY
 microns     n      k          n      k         n      k          n      k
____________________________________________________________________________
                                                           
   0.200    1.649  1.0e-8     1.649  1.0e-8     1.560  1.28      1.560  1.28
   0.250    1.606  1.0e-8     1.606  1.0e-8     2.070  1.33      2.070  1.33
   0.300    1.584  1.0e-8     1.584  1.0e-8     2.320  1.18      2.320  1.18
   0.337    1.568  1.0e-8     1.568  1.0e-8     2.430  1.09      2.430  1.09
   0.400    1.559  1.0e-8     1.559  1.0e-8     2.674  0.523     2.674  0.523
   0.488    1.550  1.0e-8     1.550  1.0e-8     3.074  0.210     3.074  0.210
   0.515    1.548  1.0e-8     1.548  1.0e-8     3.104  0.158     3.104  0.158
   0.550    1.546  1.0e-8     1.546  1.0e-8     3.102  0.0925    3.102  0.0925
   0.633    1.542  1.0e-8     1.542  1.0e-8     3.007  0.00974   3.007  0.00974
   0.694    1.541  1.0e-8     1.541  1.0e-8     2.920  0.00100   2.920  0.00100
   0.860    1.537  1.0e-8     1.537  1.0e-8     2.730  0.00400   2.730  0.00400
   1.060    1.534  1.0e-8     1.534  1.0e-8     2.690  3.0e-5    2.690  3.0e-5 
   1.300    1.531  1.0e-8     1.531  1.0e-8     2.660  1.8e-5    2.660  1.8e-5 
   1.536    1.538  1.0e-8     1.528  1.0e-8     2.640  1.3e-5    2.640  1.3e-5 
   1.800    1.524  1.0e-8     1.524  1.0e-8     2.620  1.1e-5    2.620  1.1e-5 
   2.000    1.520  1.0e-8     1.520  1.0e-8     2.610  1.0e-5    2.610  1.0e-5 
   2.250    1.516  1.0e-8     1.516  1.0e-8     2.610  1.0e-5    2.610  1.0e-5 
   2.500    1.511  4.99e-7    1.511  7.48e-7    2.610  1.0e-5    2.610  1.0e-5 
   2.700    1.506  7.20e-7    1.506  1.14e-6    2.610  1.0e-5    2.610  1.0e-5 
   3.000    1.499  2.67e-5    1.499  8.47e-6    2.610  1.0e-5    2.610  1.0e-5 
   3.200    1.493  6.77e-6    1.493  4.03e-6    2.610  1.1e-5    2.610  1.1e-5 
   3.392    1.487  6.40e-6    1.487  5.70e-6    2.610  1.1e-5    2.610  1.1e-5 
   3.500    1.483  8.31e-6    1.483  8.31e-6    2.610  1.2e-5    2.610  1.2e-5 
   3.750    1.473  5.95e-5    1.473  3.68e-5    2.610  1.2e-5    2.610  1.2e-5 
   4.000    1.462  7.12e-5    1.462  7.12e-5    2.670  6.7e-5    2.470  1.3e-5 
   4.500    1.442  5.06e-4    1.442  3.58e-4    2.660  6.0e-5    2.460  1.9e-5 
   5.000    1.417  0.00562    1.417  0.00446    2.650  5.3e-5    2.440  2.5e-5 
   5.500    1.371  0.00551    1.371  0.00520    2.640  6.2e-4    2.420  3.0e-5 
   6.000    1.325  0.00674    1.325  0.00480    2.620  0.0012    2.400  3.5e-5 
   6.200    1.293  0.00782    1.293  0.00782    2.610  0.0015    2.390  3.4e-5 
   6.500    1.246  0.00580    1.246  0.00730    2.590  0.0017    2.380  3.2e-5 
   7.200    1.065  0.0124     1.063  0.0146     2.540  0.0018    2.340  6.0e-5 
   7.900    0.585  0.0849     0.564  0.0861     2.490  0.0018    2.300  8.0e-5 
   8.200    0.141  0.538      0.123  0.586      2.450  0.0031    2.270  3.0e-4 
   8.500    0.114  1.26       0.085  1.22       2.420  0.0044    2.250  5.0e-4 
   8.700    0.131  1.41       0.096  1.72       2.400  0.0057    2.230  8.0e-4 
   9.000    0.176  2.61       0.231  3.05       2.370  0.0070    2.210  0.0010
   9.200    0.633  4.55       1.689  6.41       2.340  0.0076    2.190  0.0026
   9.500    4.497  0.392      3.899  0.229      2.300  0.0085    2.160  0.0050
   9.800    3.014  0.0869     2.860  0.0691     2.260  0.0094    2.130  0.0074
  10.000    2.663  0.0517     2.571  0.0440     2.240  0.0100    2.110  0.0090
  10.591    2.188  0.0222     2.156  0.0205     2.140  0.0145    2.031  0.0126
  11.000    2.013  0.0173     1.999  0.0159     2.069  0.0174    1.972  0.0151
  11.500    1.833  0.0188     1.849  0.0153     1.970  0.0216    1.894  0.0207
  12.500    1.587  2.27       1.260  0.130      1.760  0.0367    1.720  0.0364
  13.000    2.174  0.0519     2.625  0.318      1.645  0.0477    1.618  0.0472
  14.000    1.768  0.0348     1.821  0.0165     1.225  0.0675    1.286  0.105
  14.800    1.831  0.0229     1.670  0.0121     0.742  0.204     0.823  0.243
  15.000    1.785  0.0154     1.636  0.0121     0.554  0.295     0.668  0.331
  16.400    1.580  0.00975    1.361  0.0192     0.194  1.56      0.343  1.79
  17.200    1.456  0.0120     1.093  0.0377     0.265  2.25      0.519  2.64
  18.000    1.289  0.0177     0.425  0.212      0.520  3.13      1.093  3.78
  18.500    1.142  0.0252     0.197  0.973      1.097  3.89      2.212  4.65
  20.000    0.106  0.766      1.270  4.98       2.042  1.63      4.351  1.14
  21.300    0.194  2.57       3.041  0.102      0.941  3.61      3.048  0.487
  22.500    5.709  0.941      2.366  0.0438     3.306  6.22      2.209  0.417
  25.000    0.679  1.85       1.451  0.0999     3.714  0.684     0.520  1.69
  27.900    2.729  0.0216     4.905  0.860      0.591  2.06      0.492  3.91
  30.000    2.500  0.0108     2.959  0.0593     0.430  4.31      0.889  5.95
  35.000    2.305  0.00498    2.464  0.0125    15.362  13.9     10.861  2.58
  40.000    2.228  0.00329    2.337  0.00675    7.621  0.387     6.869  0.388
  50.000    2.214  0.00286    2.262  0.00171    6.349  0.107     5.479  0.121
  60.000    2.175  0.00224    2.223  0.00108    5.671  0.0533    5.080  0.0713
  80.000    2.148  0.00369    2.190  6.35e-4    5.266  0.0290    4.792  0.0404
 100.000    2.132  9.55e-4    2.176  4.77e-4    5.122  0.0205    4.683  0.0289
 150.000    2.120  8.72e-4    2.163  2.40e-4    4.998  0.0122    4.587  0.0173
 200.000    2.111  7.96e-4    2.159  1.59e-4    4.958  0.00886   4.555  0.0125
 300.000    2.109  7.96e-4    2.156  6.20e-5    4.931  0.00576   4.534  0.00816
  ___________________________________________________________________________
      
      
                                   Table A6
      ____________________________________________________________________
                                                        
       WAVELENGTH     SAND O-RAY         SAND E-RAY          DUST-LIKE   
       microns        n      k           n      k            n      k   
      ____________________________________________________________________
                                                        
          0.200      1.665  0.147       1.665  0.147       1.530  0.070  
          0.250      1.686  0.117       1.686  0.117       1.530  0.030  
          0.300      1.677  0.0900      1.677  0.0900      1.530  0.008  
          0.337      1.665  0.0778      1.665  0.0778      1.530  0.008  
          0.400      1.656  0.0335      1.656  0.0335      1.530  0.008  
          0.488      1.667  0.0109      1.667  0.0109      1.530  0.008  
          0.515      1.666  0.00809     1.666  0.00809     1.530  0.008  
          0.550      1.664  0.00474     1.664  0.00474     1.530  0.008  
          0.633      1.655  5.22e-4     1.655  5.22e-4     1.530  0.008  
          0.694      1.650  5.61e-5     1.650  5.61e-5     1.530  0.008  
          0.860      1.635  2.46e-4     1.635  2.46e-4     1.520  0.008  
          1.060      1.627  1.92e-6     1.627  1.92e-6     1.520  0.008  
          1.300      1.623  6.51e-7     1.623  6.51e-7     1.460  0.008  
          1.536      1.620  3.63e-7     1.620  3.63e-7     1.400  0.008  
          1.800      1.615  2.67e-7     1.615  2.67e-7     1.330  0.008  
          2.000      1.611  3.00e-7     1.611  3.00e-7     1.260  0.008  
          2.250      1.607  3.31e-7     1.607  3.31e-7     1.220  0.009  
          2.500      1.602  8.58e-7     1.602  1.09e-6     1.180  0.009  
          2.700      1.597  1.19e-6     1.597  1.59e-6     1.180  0.013  
          3.000      1.591  2.60e-5     1.591  8.69e-6     1.160  0.012  
          3.200      1.585  7.13e-6     1.585  4.53e-6     1.220  0.010  
          3.392      1.579  6.78e-6     1.579  6.12e-6     1.260  0.013  
          3.500      1.576  8.66e-6     1.576  8.66e-6     1.280  0.011  
          3.750      1.566  5.75e-5     1.566  3.58e-5     1.270  0.011  
          4.000      1.555  7.10e-5     1.555  7.10e-5     1.260  0.012  
          4.500      1.535  4.86e-4     1.535  3.45e-4     1.260  0.014  
          5.000      1.511  0.00539     1.511  0.00427     1.250  0.016  
          5.500      1.466  0.00533     1.466  0.00503     1.220  0.021  
          6.000      1.420  0.00656     1.420  0.00468     1.150  0.037  
          6.200      1.389  0.00764     1.389  0.00764     1.140  0.039  
          6.500      1.342  0.00571     1.342  0.00717     1.130  0.042  
          7.200      1.161  0.0124      1.160  0.0146      1.400  0.055  
          7.900      0.662  0.0922      0.639  0.0938      1.150  0.040  
          8.200      0.175  0.632       0.155  0.693       1.130  0.074  
          8.500      0.356  1.82        0.239  1.74        1.300  0.090  
          8.700      0.854  2.19        1.557  0.709       1.400  0.100  
          9.000      0.221  2.06        0.251  2.56        1.700  0.140  
          9.200      0.612  4.07        1.590  5.85        1.720  0.150  
          9.500      4.274  0.356       3.733  0.207       1.730  0.162  
          9.800      2.933  0.0789      2.794  0.0629      1.740  0.162  
         10.000      2.615  0.0474      2.533  0.0405      1.750  0.162  
         10.591      2.180  0.0214      2.151  0.0198      1.620  0.120  
         11.000      2.015  0.0172      2.003  0.0160      1.620  0.105  
         11.500      1.844  0.0190      1.859  0.0159      1.590  0.100  
         12.500      1.564  2.02        1.305  0.123       1.510  0.090  
         13.000      2.119  0.0515      2.524  0.291       1.470  0.100  
         14.000      1.715  0.0394      1.762  0.0229      1.520  0.085  
         14.800      1.727  0.0381      1.580  0.0293      1.570  0.100  
         15.000      1.669  0.0348      1.533  0.0333      1.570  0.100  
         16.400      1.163  0.233       0.955  0.481       1.600  0.100  
         17.200      2.011  0.655       1.404  0.153       1.630  0.100  
         18.000      1.584  0.0912      0.489  0.249       1.640  0.115  
         18.500      1.346  0.0603      0.229  1.10        1.640  0.120  
         20.000      0.145  0.886       1.389  4.57        1.680  0.220  
         21.300      0.346  2.59        2.853  0.448       1.770  0.280  
         22.500      5.370  1.35        2.698  0.295       1.900  0.280  
         25.000      0.946  1.84        1.559  0.154       1.970  0.240  
         27.900      2.162  0.382       4.400  0.915       1.890  0.320  
         30.000      3.446  0.353       4.196  1.41        1.800  0.420  
         35.000      2.655  0.0243      2.836  0.0369      1.900  0.500  
         40.000      2.491  0.0107      2.606  0.0151      2.100  0.600  
         50.000      2.446  0.00613     2.495  0.00509     0.000  0.000
         60.000      2.388  0.00428     2.436  0.00319     0.000  0.000
         80.000      2.347  0.00494     2.389  0.00192     0.000  0.000
        100.000      2.326  0.00187     2.370  0.0014      0.000  0.000
        150.000      2.310  0.00143     2.352  8.24e-4     0.000  0.000
        200.000      2.299  0.00121     2.347  5.88e-4     0.000  0.000
        300.000      2.296  0.00106     2.343  3.43e-4     0.000  0.000
      _____________________________________________________________________

