From:	IO::"memilham@CRDEC-VAX4.ARPA" 14-JUN-1988 12:52
To:	HAL::DALTON
Subj:	Optical Constants: Limestone

Received: from CRDEC-VAX4.ARPA by ames-io.ARPA with INTERNET ;
          Tue, 14 Jun 88 12:42:36 PDT
Date:     Tue, 14 Jun 88 14:16:56 EDT
From:     "Merrill E. Milham" <memilham@CRDEC-VAX4.ARPA>
To:       dalton%hal@AMES-IO.ARPA
Subject:  Optical Constants: Limestone
Message-ID:  <8806141416.aa15731@CRDEC-VAX4.CRDEC-VAX4.ARPA>
 
LIMESTONE-M.R.QUERRY
    wl          wvn  		n     k
   (um)         (cm-1)        
    0.200000    50000.0    1.27700   0.472000
    0.210000    47619.1    1.61300    5.80000E-02
    0.220000    45454.5    1.60000    5.20000E-02
    0.230000    43478.3    1.59200    5.20000E-02
    0.240000    41666.7    1.58400    5.40000E-02
    0.250000    40000.0    1.58300    6.10000E-02
    0.260000    38461.5    1.59300    5.50000E-02
    0.270000    37037.0    1.58800    4.20000E-02
    0.280000    35714.3    1.57900    4.10000E-02
    0.290000    34482.8    1.57900    3.80000E-02
    0.300000    33333.3    1.56900    3.40000E-02
    0.310000    32258.1    1.56400    3.70000E-02
    0.320000    31250.0    1.56300    3.70000E-02
    0.330000    30303.0    1.55900    3.60000E-02
    0.340000    29411.8    1.55400    3.70000E-02
    0.350000    28571.4    1.55300    4.00000E-02
    0.360000    27777.8    1.55100    4.20000E-02
    0.370000    27027.0    1.55000    4.40000E-02
    0.380000    26315.8    1.54800    4.70000E-02
    0.390000    25641.0    1.54900    5.00000E-02
    0.400000    25000.0    1.54800    5.20000E-02
    0.410000    24390.2    1.54900    5.80000E-02
    0.420000    23809.5    1.55700    6.40000E-02
    0.430000    23255.8    1.56600    6.10000E-02
    0.440000    22727.3    1.57000    5.50000E-02
    0.450000    22222.2    1.57100    4.80000E-02
    0.460000    21739.1    1.56600    4.70000E-02
    0.470000    21276.6    1.56800    4.80000E-02
    0.480000    20833.3    1.56900    4.40000E-02
    0.490000    20408.2    1.56900    4.10000E-02
    0.500000    20000.0    1.56600    3.70000E-02
    0.510000    19607.8    1.56100    3.80000E-02
    0.520000    19230.8    1.56100    4.10000E-02
    0.530000    18867.9    1.56200    4.10000E-02
    0.540000    18518.5    1.56200    4.00000E-02
    0.550000    18181.8    1.56200    4.10000E-02
    0.560000    17857.1    1.56200    4.00000E-02
    0.570000    17543.9    1.56100    4.10000E-02
    0.580000    17241.4    1.56200    4.10000E-02
    0.590000    16949.2    1.56100    4.30000E-02
    0.600000    16666.7    1.56500    4.50000E-02
    0.610000    16393.4    1.56900    4.10000E-02
    0.620000    16129.0    1.56800    3.80000E-02
    0.630000    15873.0    1.56700    3.80000E-02
    0.640000    15625.0    1.56900    3.60000E-02
    0.650000    15384.6    1.56800    3.20000E-02
    0.660000    15151.5    1.56700    2.90000E-02
    0.670000    14925.4    1.56300    2.70000E-02
    0.680000    14705.9    1.56000    2.80000E-02
    0.690000    14492.8    1.56000    2.70000E-02
    0.700000    14285.7    1.55600    2.50000E-02
    0.710000    14084.5    1.55100    2.80000E-02
    0.720000    13888.9    1.55000    3.20000E-02
    0.730000    13698.6    1.54900    3.40000E-02
    0.740000    13513.5    1.55200    3.50000E-02
    0.750000    13333.3    1.54900    3.50000E-02
    0.760000    13157.9    1.55000    3.80000E-02
    0.770000    12987.0    1.55100    4.00000E-02
    0.780000    12820.5    1.55200    4.00000E-02
    0.790000    12658.2    1.55100    4.00000E-02
    0.800000    12500.0    1.55200    4.10000E-02
    0.810000    12345.7    1.55200    4.20000E-02
    0.820000    12195.1    1.55500    4.00000E-02
    0.830000    12048.2    1.55000    3.90000E-02
    0.840000    11904.8    1.55000    4.40000E-02
    0.850000    11764.7    1.55200    4.50000E-02
    0.860000    11627.9    1.55200    4.60000E-02
    0.870000    11494.3    1.55400    4.70000E-02
    0.880000    11363.6    1.55500    4.60000E-02
    0.890000    11236.0    1.55500    4.50000E-02
    0.900000    11111.1    1.55400    4.40000E-02
    0.910000    10989.0    1.55100    4.60000E-02
    0.920000    10869.6    1.55300    4.90000E-02
    0.930000    10752.7    1.55500    5.00000E-02
    0.940000    10638.3    1.55500    5.10000E-02
    0.950000   10526.32    1.55700    5.20000E-02
    0.960000   10416.67    1.56000    5.10000E-02
    0.970000   10309.28    1.55900    5.00000E-02
    0.980000   10204.08    1.56000    5.00000E-02
    0.990000   10101.01    1.56000    5.10000E-02
     1.00000   10000.00    1.56200    5.20000E-02
     1.01000    9900.99    1.56400    5.00000E-02
     1.02000    9803.92    1.56400    4.90000E-02
     1.03000    9708.74    1.56400    4.80000E-02
     1.04000    9615.38    1.56200    4.90000E-02
     1.05000    9523.81    1.56400    4.90000E-02
     1.06000    9433.96    1.56400    4.80000E-02
     1.07000    9345.79    1.56400    4.80000E-02
     1.08000    9259.26    1.56300    4.80000E-02
     1.09000    9174.31    1.56400    4.80000E-02
     1.10000    9090.91    1.56300    4.70000E-02
     1.11000    9009.01    1.56300    4.90000E-02
     1.12000    8928.57    1.56400    5.10000E-02
     1.13000    8849.56    1.56800    4.80000E-02
     1.14000    8771.93    1.56500    4.50000E-02
     1.15000    8695.65    1.56300    4.80000E-02
     1.16000    8620.69    1.56500    4.80000E-02
     1.17000    8547.01    1.56400    4.70000E-02
     1.18000    8474.58    1.56300    4.80000E-02
     1.19000    8403.36    1.56400    4.90000E-02
     1.20000    8333.33    1.56400    4.90000E-02
     1.21000    8264.46    1.56500    4.80000E-02
     1.22000    8196.72    1.56400    4.90000E-02
     1.23000    8130.08    1.56500    4.90000E-02
     1.24000    8064.52    1.56600    4.90000E-02
     1.25000    8000.00    1.56600    4.90000E-02
     1.26000    7936.51    1.56600    4.90000E-02
     1.27000    7874.02    1.56600    4.90000E-02
     1.28000    7812.50    1.56700    4.90000E-02
     1.29000    7751.94    1.56700    4.90000E-02
     1.30000    7692.31    1.56600    4.80000E-02
     1.31000    7633.59    1.56600    4.90000E-02
     1.32000    7575.76    1.56800    5.00000E-02
     1.33000    7518.80    1.56800    4.80000E-02
     1.34000    7462.69    1.56800    4.70000E-02
     1.35000    7407.41    1.56700    4.70000E-02
     1.36000    7352.94    1.56600    4.80000E-02
     1.37000    7299.27    1.56700    4.80000E-02
     1.38000    7246.38    1.56700    4.80000E-02
     1.39000    7194.24    1.56700    4.80000E-02
     1.40000    7142.86    1.56700    4.90000E-02
     1.41000    7092.20    1.56700    4.90000E-02
     1.42000    7042.25    1.56700    4.90000E-02
     1.43000    6993.01    1.56700    4.90000E-02
     1.44000    6944.44    1.56700    4.90000E-02
     1.45000    6896.55    1.56700    5.00000E-02
     1.46000    6849.31    1.56800    5.00000E-02
     1.47000    6802.72    1.56800    4.90000E-02
     1.48000    6756.76    1.56800    4.90000E-02
     1.49000    6711.41    1.56800    5.00000E-02
     1.50000    6666.67    1.56800    5.00000E-02
     1.51000    6622.52    1.56800    4.90000E-02
     1.52000    6578.95    1.56800    5.00000E-02
     1.53000    6535.95    1.56900    5.00000E-02
     1.54000    6493.51    1.56900    5.00000E-02
     1.55000    6451.61    1.56900    4.90000E-02
     1.56000    6410.26    1.56900    4.90000E-02
     1.57000    6369.43    1.56800    4.90000E-02
     1.58000    6329.11    1.56800    5.00000E-02
     1.59000    6289.31    1.56900    4.90000E-02
     1.60000    6250.00    1.56800    4.90000E-02
     1.61000    6211.18    1.56900    5.00000E-02
     1.62000    6172.84    1.56800    5.00000E-02
     1.63000    6134.97    1.56900    4.90000E-02
     1.64000    6097.56    1.56800    4.90000E-02
     1.65000    6060.61    1.56900    5.00000E-02
     1.66000    6024.10    1.56800    4.90000E-02
     1.67000    5988.02    1.56900    5.00000E-02
     1.68000    5952.38    1.56900    5.00000E-02
     1.69000    5917.16    1.56900    5.00000E-02
     1.70000    5882.35    1.56900    4.90000E-02
     1.71000    5847.95    1.56900    4.90000E-02
     1.72000    5813.95    1.56800    4.90000E-02
     1.73000    5780.35    1.56900    5.00000E-02
     1.74000    5747.13    1.56700    5.00000E-02
     1.75000    5714.29    1.56900    5.10000E-02
     1.76000    5681.82    1.56800    5.00000E-02
     1.77000    5649.72    1.56900    5.10000E-02
     1.78000    5617.98    1.57000    5.00000E-02
     1.79000    5586.59    1.56900    4.90000E-02
     1.80000    5555.56    1.56900    4.90000E-02
     1.81000    5524.86    1.56800    4.90000E-02
     1.82000    5494.51    1.56800    4.90000E-02
     1.83000    5464.48    1.56700    4.90000E-02
     1.84000    5434.78    1.56700    4.90000E-02
     1.85000    5405.41    1.56600    4.90000E-02
     1.86000    5376.34    1.56500    5.00000E-02
     1.87000    5347.59    1.56500    5.00000E-02
     1.88000    5319.15    1.56400    5.00000E-02
     1.89000    5291.01    1.56300    5.10000E-02
     1.90000    5263.16    1.56300    5.30000E-02
     1.91000    5235.60    1.56300    5.40000E-02
     1.92000    5208.33    1.56300    5.50000E-02
     1.93000    5181.35    1.56300    5.60000E-02
     1.94000    5154.64    1.56300    5.70000E-02
     1.95000    5128.21    1.56400    5.80000E-02
     1.96000    5102.04    1.56300    5.90000E-02
     1.97000    5076.14    1.56300    6.00000E-02
     1.98000    5050.50    1.56300    6.30000E-02
     1.99000    5025.13    1.56500    6.80000E-02
     2.00000    5000.00    1.57100    7.00000E-02
     2.05000    4878.05    1.58200    5.90000E-02
     2.10000    4761.90    1.58100    5.30000E-02
     2.15000    4651.16    1.57900    5.00000E-02
     2.20000    4545.45    1.57900    4.80000E-02
     2.25000    4444.44    1.57600    4.50000E-02
     2.30000    4347.83    1.57100    4.40000E-02
     2.35000    4255.32    1.56800    4.90000E-02
     2.40000    4166.67    1.57500    5.10000E-02
     2.45000    4081.63    1.57200    4.50000E-02
     2.50000    4000.00    1.56600    5.00000E-02
     2.55000    3921.57    1.57300    5.80000E-02
     2.60000    3846.15    1.58600    4.90000E-02
     2.65000    3773.58    1.57500    6.00000E-02
     2.70000    3703.70    1.62300    4.90000E-02
     2.75000    3636.36    1.63800    4.90000E-02
     2.80000    3571.43    1.51100    4.90000E-02
     2.85000    3508.77    1.47600    1.80000E-02
     2.90000    3448.28    1.51000    6.40000E-02
     2.95000    3389.83    1.52700    7.30000E-02
     3.00000    3333.33    1.53500    6.60000E-02
     3.05000    3278.69    1.54600    6.10000E-02
     3.10000    3225.81    1.54300    5.00000E-02
     3.15000    3174.60    1.53500    5.00000E-02
     3.20000    3125.00    1.54100    5.40000E-02
     3.25000    3076.92    1.54200    4.90000E-02
     3.30000    3030.30    1.53600    4.50000E-02
     3.35000    2985.07    1.53200    5.00000E-02
     3.40000    2941.18    1.53100    5.40000E-02
     3.45000    2898.55    1.53000    5.70000E-02
     3.50000    2857.14    1.53400    5.70000E-02
     3.55000    2816.90    1.53200    5.50000E-02
     3.60000    2777.78    1.53200    5.60000E-02
     3.65000    2739.73    1.53100    5.40000E-02
     3.70000    2702.70    1.52800    5.10000E-02
     3.75000    2666.67    1.52300    5.00000E-02
     3.80000    2631.58    1.51900    5.20000E-02
     3.85000    2597.40    1.51600    5.40000E-02
     3.90000    2564.10    1.51300    5.50000E-02
     3.95000    2531.65    1.50800    6.10000E-02
     4.00000    2500.00    1.51800    6.10000E-02
     4.05000    2469.14    1.51100    5.30000E-02
     4.10000    2439.02    1.50700    5.50000E-02
     4.15000    2409.64    1.50300    5.50000E-02
     4.20000    2380.95    1.50200    5.40000E-02
     4.25000    2352.94    1.49200    4.40000E-02
     4.30000    2325.58    1.46700    6.20000E-02
     4.35000    2298.85    1.49100    7.80000E-02
     4.40000    2272.73    1.48900    6.40000E-02
     4.45000    2247.19    1.48300    6.60000E-02
     4.50000    2222.22    1.48100    6.80000E-02
     4.55000    2197.80    1.48000    6.70000E-02
     4.60000    2173.91    1.47600    6.50000E-02
     4.65000    2150.54    1.47100    6.60000E-02
     4.70000    2127.66    1.46800    6.80000E-02
     4.75000    2105.26    1.46600    6.70000E-02
     4.80000    2083.33    1.46200    6.60000E-02
     4.85000    2061.86    1.45700    6.50000E-02
     4.90000    2040.82    1.45100    6.40000E-02
     4.95000    2020.20    1.44600    6.40000E-02
     5.00000    2000.00    1.44100    6.40000E-02
     5.05000    1980.20    1.43600    6.00000E-02
     5.10000    1960.78    1.42300    5.70000E-02
     5.15000    1941.75    1.41200    6.20000E-02
     5.20000    1923.08    1.40600    6.60000E-02
     5.25000    1904.76    1.40000    6.80000E-02
     5.30000    1886.79    1.39300    7.00000E-02
     5.35000    1869.16    1.38700    6.90000E-02
     5.40000    1851.85    1.37700    6.70000E-02
     5.45000    1834.86    1.36500    6.70000E-02
     5.50000    1818.18    1.34700    6.70000E-02
     5.55000    1801.80    1.32700    8.90000E-02
     5.60000    1785.71    1.35200    9.50000E-02
     5.65000    1769.91    1.33200    7.20000E-02
     5.70000    1754.39    1.31600    7.70000E-02
     5.75000    1739.13    1.30200    7.50000E-02
     5.80000    1724.14    1.28600    7.50000E-02
     5.85000    1709.40    1.26700    7.10000E-02
     5.90000    1694.92    1.24200    7.10000E-02
     5.95000    1680.67    1.21700    7.40000E-02
     6.00000    1666.67    1.18800    7.80000E-02
     6.05000    1652.89    1.16700    8.40000E-02
     6.10000    1639.34    1.12700    7.70000E-02
     6.15000    1626.02    1.08700    8.50000E-02
     6.20000    1612.90    1.03800    8.70000E-02
     6.25000    1600.00   0.987000    9.60000E-02
     6.30000    1587.30   0.895000    9.20000E-02
     6.35000    1574.80   0.816000   0.147000
     6.40000    1562.50   0.646000   0.118000
     6.45000    1550.39   0.421000   0.357000
     6.50000    1538.46   0.403000   0.645000
     6.55000    1526.72   0.476000   0.856000
     6.60000    1515.15   0.543000    1.02800
     6.65000    1503.76   0.633000    1.19100
     6.70000    1492.54   0.740000    1.34700
     6.75000    1481.48   0.871000    1.49000
     6.80000    1470.59    1.03600    1.64800
     6.85000    1459.85    1.25100    1.74700
     6.90000    1449.28    1.47000    1.84300
     6.95000    1438.85    1.73100    1.87100
     7.00000    1428.57    2.01600    1.93100
     7.05000    1418.44    2.48100    1.86700
     7.10000    1408.45    2.91000    1.47600
     7.15000    1398.60    2.97700   0.912000
     7.20000    1388.89    2.76200   0.559000
     7.25000    1379.31    2.58100   0.408000
     7.30000    1369.86    2.42400   0.315000
     7.35000    1360.54    2.31200   0.282000
     7.40000    1351.35    2.23000   0.263000
     7.45000    1342.28    2.17500   0.243000
     7.50000    1333.33    2.11400   0.228000
     7.55000    1324.50    2.07900   0.219000
     7.60000    1315.79    2.03400   0.205000
     7.65000    1307.19    2.00200   0.207000
     7.70000    1298.70    1.97900   0.198000
     7.75000    1290.32    1.94600   0.191000
     7.80000    1282.05    1.92300   0.193000
     7.85000    1273.89    1.90200   0.189000
     7.90000    1265.82    1.87700   0.193000
     7.95000    1257.86    1.86200   0.205000
     8.00000    1250.00    1.86000   0.211000
     8.05000    1242.24    1.85800   0.203000
     8.10000    1234.57    1.84700   0.194000
     8.15000    1226.99    1.83200   0.192000
     8.20000    1219.51    1.81900   0.192000
     8.25000    1212.12    1.81100   0.192000
     8.30000    1204.82    1.80000   0.192000
     8.35000    1197.60    1.79400   0.193000
     8.40000    1190.48    1.78300   0.195000
     8.45000    1183.43    1.78100   0.198000
     8.50000    1176.47    1.77500   0.195000
     8.55000    1169.59    1.76800   0.195000
     8.60000    1162.79    1.76200   0.197000
     8.65000    1156.07    1.75800   0.199000
     8.70000    1149.43    1.75500   0.198000
     8.75000    1142.86    1.74700   0.199000
     8.80000    1136.36    1.75000   0.200000
     8.85000    1129.94    1.74300   0.193000
     8.90000    1123.60    1.73400   0.199000
     8.95000    1117.32    1.73600   0.201000
     9.00000    1111.11    1.73200   0.199000
     9.05000    1104.97    1.73100   0.198000
     9.10000    1098.90    1.72300   0.196000
     9.15000    1092.90    1.72000   0.202000
     9.20000    1086.96    1.72300   0.201000
     9.25000    1081.08    1.71700   0.199000
     9.30000    1075.27    1.71700   0.200000
     9.35000    1069.52    1.71600   0.199000
     9.40000    1063.83    1.71500   0.196000
     9.45000    1058.20    1.70800   0.193000
     9.50000    1052.63    1.70300   0.195000
     9.55000    1047.12    1.70300   0.194000
     9.60000    1041.67    1.69800   0.192000
     9.65000    1036.27    1.69400   0.199000
     9.70000    1030.93    1.70200   0.198000
     9.75000    1025.64    1.69600   0.188000
     9.80000    1020.41    1.68800   0.188000
     9.85000    1015.23    1.68400   0.191000
     9.90000    1010.10    1.68700   0.193000
     9.95000   1005.025    1.68400   0.189000
    10.00000   1000.000    1.68100   0.187000
    10.05000    995.025    1.67800   0.184000
    10.10000    990.099    1.67500   0.182000
    10.15000    985.222    1.67200   0.179000
    10.20000    980.392    1.66400   0.178000
    10.25000    975.610    1.66100   0.177000
    10.30000    970.874    1.65600   0.174000
    10.35000    966.184    1.65100   0.172000
    10.40000    961.539    1.64300   0.170000
    10.45000    956.938    1.63700   0.169000
    10.50000    952.381    1.62700   0.169000
    10.55000    947.867    1.62200   0.169000
     10.6000    943.396    1.61300   0.169000
     10.6500    938.967    1.60400   0.171000
     10.7000    934.579    1.59600   0.171000
     10.7500    930.233    1.58600   0.171000
     10.8000    925.926    1.57600   0.170000
     10.8500    921.659    1.56200   0.170000
     10.9000    917.431    1.54500   0.169000
     10.9500    913.242    1.52200   0.170000
     11.0000    909.091    1.49700   0.174000
     11.0500    904.977    1.46000   0.176000
     11.1000    900.901    1.40300   0.190000
     11.1500    896.861    1.32800   0.233000
     11.2000    892.857    1.24200   0.330000
     11.2500    888.889    1.19100   0.507000
     11.3000    884.956    1.24600   0.748000
     11.3500    881.057    1.46000   0.977000
     11.4000    877.193    1.84400    1.06100
     11.4500    873.362    2.23700   0.819000
     11.5000    869.565    2.28600   0.407000
     11.5500    865.801    2.12300   0.185000
     11.6000    862.069    1.97100   0.132000
     11.6500    858.369    1.89500   0.128000
     11.7000    854.701    1.83000   0.124000
     11.7500    851.064    1.79500   0.140000
     11.8000    847.458    1.77500   0.145000
     11.8500    843.882    1.76100   0.145000
     11.9000    840.336    1.74300   0.144000
     11.9500    836.820    1.72900   0.145000
     12.0000    833.333    1.71300   0.148000
     12.0500    829.875    1.70700   0.152000
     12.1000    826.446    1.69700   0.152000
     12.1500    823.045    1.69100   0.155000
     12.2000    819.672    1.68300   0.157000
     12.2500    816.327    1.68000   0.159000
     12.3000    813.008    1.67500   0.158000
     12.3500    809.717    1.67000   0.161000
     12.4000    806.452    1.67100   0.159000
     12.4500    803.213    1.66100   0.156000
     12.5000    800.000    1.66000   0.159000
     12.5500    796.813    1.65600   0.155000
     12.6000    793.651    1.65000   0.153000
     12.6500    790.514    1.64500   0.154000
     12.7000    787.402    1.64000   0.154000
     12.7500    784.314    1.63600   0.154000
     12.8000    781.250    1.63200   0.154000
     12.8500    778.210    1.63000   0.154000
     12.9000    775.194    1.62400   0.153000
     12.9500    772.201    1.62100   0.153000
     13.0000    769.231    1.61700   0.150000
     13.0500    766.284    1.61000   0.151000
     13.1000    763.359    1.60800   0.154000
     13.1500    760.456    1.60800   0.151000
     13.2000    757.576    1.60000   0.148000
     13.2500    754.717    1.59600   0.149000
     13.3000    751.880    1.58900   0.149000
     13.3500    749.064    1.58700   0.150000
     13.4000    746.269    1.58000   0.148000
     13.4500    743.494    1.57700   0.149000
     13.5000    740.741    1.57100   0.147000
     13.5500    738.007    1.56400   0.147000
     13.6000    735.294    1.55700   0.145000
     13.6500    732.601    1.54700   0.145000
     13.7000    729.927    1.53700   0.145000
     13.7500    727.273    1.52400   0.145000
     13.8000    724.638    1.50500   0.146000
     13.8500    722.022    1.47500   0.154000
     13.9000    719.424    1.43100   0.190000
     13.9500    716.846    1.41700   0.274000
     14.0000    714.286    1.48500   0.364000
     14.0500    711.744    1.60800   0.368000
     14.1000    709.220    1.67300   0.279000
     14.1500    706.714    1.65100   0.208000
     14.2000    704.225    1.62200   0.188000
     14.2500    701.754    1.60500   0.179000
     14.3000    699.301    1.59200   0.174000
     14.3500    696.864    1.58200   0.173000
     14.4000    694.444    1.57500   0.173000
     14.4500    692.042    1.56900   0.172000
     14.5000    689.655    1.56600   0.172000
     14.5500    687.285    1.56100   0.169000
     14.6000    684.932    1.55500   0.170000
     14.6500    682.594    1.55400   0.169000
     14.7000    680.272    1.54800   0.166000
     14.7500    677.966    1.54300   0.167000
     14.8000    675.676    1.53800   0.167000
     14.8500    673.401    1.53500   0.169000
     14.9000    671.141    1.53700   0.167000
     14.9500    668.896    1.52900   0.160000
     15.0000    666.667    1.51600   0.164000
     15.0500    664.452    1.51600   0.172000
     15.1000    662.252    1.51600   0.173000
     15.1500    660.066    1.51400   0.173000
     15.2000    657.895    1.51200   0.173000
     15.2500    655.738    1.50900   0.174000
     15.3000    653.595    1.50800   0.173000
     15.3500    651.466    1.50400   0.172000
     15.4000    649.351    1.50000   0.173000
     15.4500    647.249    1.49700   0.174000
     15.5000    645.161    1.49400   0.176000
     15.5500    643.087    1.49400   0.178000
     15.6000    641.026    1.49100   0.176000
     15.6500    638.978    1.48900   0.177000
     15.7000    636.943    1.48600   0.177000
     15.7500    634.921    1.48400   0.178000
     15.8000    632.911    1.48100   0.178000
     15.8500    630.915    1.47900   0.179000
     15.9000    628.931    1.47600   0.179000
     15.9500    626.959    1.47500   0.180000
     16.0000    625.000    1.47200   0.179000
     16.0500    623.053    1.47000   0.180000
     16.1000    621.118    1.46600   0.180000
     16.1500    619.195    1.46400   0.180000
     16.2000    617.284    1.46300   0.180000
     16.2500    615.385    1.45800   0.180000
     16.3000    613.497    1.45700   0.184000
     16.3500    611.621    1.45500   0.182000
     16.4000    609.756    1.45100   0.183000
     16.4500    607.903    1.45200   0.183000
     16.5000    606.061    1.44700   0.182000
     16.5500    604.230    1.44600   0.186000
     16.6000    602.410    1.44400   0.185000
     16.6500    600.601    1.44200   0.184000
     16.7000    598.802    1.43900   0.183000
     16.7500    597.015    1.43600   0.184000
     16.8000    595.238    1.43400   0.187000
     16.8500    593.472    1.43300   0.186000
     16.9000    591.716    1.43000   0.183000
     16.9500    589.970    1.42400   0.186000
     17.0000    588.235    1.42500   0.189000
     17.0500    586.510    1.42400   0.191000
     17.1000    584.795    1.42300   0.190000
     17.1500    583.090    1.42200   0.187000
     17.2000    581.395    1.42100   0.186000
     17.2500    579.710    1.41800   0.186000
     17.3000    578.035    1.41600   0.188000
     17.3500    576.369    1.41400   0.185000
     17.4000    574.713    1.40900   0.183000
     17.4500    573.066    1.40900   0.185000
     17.5000    571.429    1.40700   0.182000
     17.5500    569.801    1.40300   0.184000
     17.6000    568.182    1.39900   0.184000
     17.6500    566.572    1.39900   0.181000
     17.7000    564.972    1.39300   0.179000
     17.7500    563.380    1.39100   0.182000
     17.8000    561.798    1.38800   0.183000
     17.8500    560.224    1.38600   0.183000
     17.9000    558.659    1.38300   0.180000
     17.9500    557.103    1.38000   0.180000
     18.0000    555.556    1.37700   0.179000
     18.0500    554.017    1.37200   0.182000
     18.1000    552.486    1.37000   0.183000
     18.1500    550.964    1.36800   0.180000
     18.2000    549.451    1.36600   0.181000
     18.2500    547.945    1.36400   0.179000
     18.3000    546.448    1.35800   0.181000
     18.3500    544.959    1.35500   0.181000
     18.4000    543.478    1.35200   0.179000
     18.4500    542.005    1.35000   0.181000
     18.5000    540.541    1.34800   0.179000
     18.5500    539.084    1.34300   0.181000
     18.6000    537.634    1.33900   0.182000
     18.6500    536.193    1.33800   0.180000
     18.7000    534.759    1.33400   0.181000
     18.7500    533.333    1.33400   0.181000
     18.8000    531.915    1.32900   0.182000
     18.8500    530.504    1.32400   0.182000
     18.9000    529.101    1.32400   0.181000
     18.9500    527.704    1.32200   0.179000
     19.0000    526.316    1.31800   0.178000
     19.0500    524.934    1.31200   0.181000
     19.1000    523.560    1.30800   0.182000
     19.1500    522.193    1.30800   0.181000
     19.2000    520.833    1.30700   0.179000
     19.2500    519.481    1.30000   0.178000
     19.3000    518.135    1.29800   0.184000
     19.3500    516.796    1.29600   0.180000
     19.4000    515.464    1.29100   0.178000
     19.4500    514.139    1.28800   0.180000
     19.5000    512.820    1.28600   0.179000
     19.5500    511.509    1.28000   0.182000
     19.6000    510.204    1.27700   0.183000
     19.6500    508.906    1.27800   0.180000
     19.7000    507.614    1.27200   0.177000
     19.7500    506.329    1.27100   0.178000
     19.8000    505.051    1.26400   0.177000
     19.8500    503.778    1.25800   0.177000
     19.9000    502.513    1.25700   0.176000
     19.9500    501.253    1.25300   0.174000
     20.0000    500.000    1.24900   0.174000
     20.0500    498.753    1.24200   0.176000
     20.1000    497.512    1.23800   0.177000
     20.1500    496.278    1.23600   0.174000
     20.2000    495.049    1.23200   0.175000
     20.2500    493.827    1.22900   0.174000
     20.3000    492.611    1.22200   0.177000
     20.3500    491.400    1.21800   0.177000
     20.4000    490.196    1.21400   0.175000
     20.4500    488.998    1.21100   0.177000
     20.5000    487.805    1.20800   0.178000
     20.5500    486.618    1.20200   0.180000
     20.6000    485.437    1.19700   0.181000
     20.6500    484.262    1.19500   0.180000
     20.7000    483.092    1.19200   0.181000
     20.7500    481.928    1.18900   0.181000
     20.8000    480.769    1.18300   0.185000
     20.8500    479.616    1.17900   0.185000
     20.9000    478.469    1.17900   0.185000
     20.9500    477.327    1.17400   0.185000
     21.0000    476.190    1.17300   0.189000
     21.0500    475.059    1.17000   0.191000
     21.1000    473.934    1.16700   0.191000
     21.1500    472.813    1.17000   0.190000
     21.2000    471.698    1.16800   0.186000
     21.2500    470.588    1.16400   0.186000
     21.3000    469.484    1.15900   0.187000
     21.3500    468.384    1.15700   0.186000
     21.4000    467.290    1.15700   0.183000
     21.4500    466.200    1.15400   0.181000
     21.5000    465.116    1.15100   0.179000
     21.5500    464.037    1.14500   0.180000
     21.6000    462.963    1.14100   0.178000
     21.6500    461.894    1.14100   0.176000
     21.7000    460.829    1.13800   0.173000
     21.7500    459.770    1.13600   0.171000
     21.8000    458.716    1.12900   0.169000
     21.8500    457.666    1.12500   0.166000
     21.9000    456.621    1.12200   0.162000
     21.9500    455.581    1.11700   0.161000
     22.0000    454.545    1.11200   0.158000
     22.0500    453.515    1.10400   0.159000
     22.1000    452.489    1.09900   0.157000
     22.1500    451.467    1.09600   0.154000
     22.2000    450.450    1.09100   0.152000
     22.2500    449.438    1.08500   0.151000
     22.3000    448.431    1.07800   0.151000
     22.3500    447.427    1.07200   0.149000
     22.4000    446.429    1.06900   0.147000
     22.4500    445.434    1.06400   0.144000
     22.5000    444.444    1.05800   0.144000
     22.5500    443.459    1.04900   0.142000
     22.6000    442.478    1.04200   0.140000
     22.6500    441.501    1.03800   0.139000
     22.7000    440.529    1.03200   0.138000
     22.7500    439.560    1.02600   0.137000
     22.8000    438.596    1.01600   0.136000
     22.8500    437.637    1.00900   0.135000
     22.9000    436.681    1.00500   0.135000
     22.9500    435.730   0.998000   0.135000
     23.0000    434.783   0.992000   0.134000
     23.0500    433.840   0.982000   0.134000
     23.1000    432.900   0.976000   0.134000
     23.1500    431.965   0.972000   0.133000
     23.2000    431.034   0.965000   0.133000
     23.2500    430.108   0.959000   0.133000
     23.3000    429.185   0.950000   0.131000
     23.3500    428.266   0.943000   0.131000
     23.4000    427.350   0.939000   0.131000
     23.4500    426.439   0.932000   0.131000
     23.5000    425.532   0.926000   0.131000
     23.5500    424.628   0.917000   0.127000
     23.6000    423.729   0.910000   0.127000
     23.6500    422.833   0.905000   0.126000
     23.7000    421.941   0.897000   0.125000
     23.7500    421.053   0.891000   0.123000
     23.8000    420.168   0.880000   0.117000
     23.8500    419.287   0.866000   0.114000
     23.9000    418.410   0.853000   0.121000
     23.9500    417.537   0.847000   0.128000
     24.0000    416.667   0.845000   0.129000
     24.0500    415.800   0.838000   0.124000
     24.1000    414.938   0.830000   0.123000
     24.1500    414.079   0.823000   0.122000
     24.2000    413.223   0.813000   0.120000
     24.2500    412.371   0.803000   0.120000
     24.3000    411.523   0.792000   0.117000
     24.3500    410.678   0.781000   0.117000
     24.4000    409.836   0.772000   0.119000
     24.4500    408.998   0.761000   0.119000
     24.5000    408.163   0.751000   0.119000
     24.5500    407.332   0.739000   0.118000
     24.6000    406.504   0.728000   0.119000
     24.6500    405.680   0.716000   0.121000
     24.7000    404.858   0.705000   0.124000
     24.7500    404.040   0.695000   0.127000
     24.8000    403.226   0.685000   0.128000
     24.8500    402.414   0.678000   0.129000
     24.9000    401.606   0.668000   0.128000
     24.9500    400.802   0.658000   0.128000
     25.0000    400.000   0.647000   0.119000
     25.0500    399.202   0.620000   0.115000
     25.1000    398.406   0.601000   0.130000
     25.1500    397.614   0.594000   0.125000
     25.2000    396.825   0.560000   0.134000
     25.2500    396.040   0.554000   0.153000
     25.3000    395.257   0.545000   0.159000
     25.3500    394.477   0.532000   0.166000
     25.4000    393.701   0.521000   0.174000
     25.4500    392.927   0.512000   0.180000
     25.5000    392.157   0.500000   0.185000
     25.5500    391.389   0.490000   0.195000
     25.6000    390.625   0.479000   0.200000
     25.6500    389.864   0.466000   0.206000
     25.7000    389.105   0.456000   0.212000
     25.7500    388.350   0.443000   0.219000
     25.8000    387.597   0.435000   0.232000
     25.8500    386.847   0.427000   0.233000
     25.9000    386.100   0.408000   0.230000
     25.9500    385.356   0.387000   0.237000
     26.0000    384.615   0.365000   0.252000
     26.0500    383.877   0.353000   0.277000
     26.1000    383.142   0.343000   0.295000
     26.1500    382.409   0.337000   0.306000
     26.2000    381.679   0.331000   0.318000
     26.2500    380.952   0.323000   0.327000
     26.3000    380.228   0.315000   0.348000
     26.3500    379.507   0.310000   0.359000
     26.4000    378.788   0.299000   0.368000
     26.4500    378.072   0.300000   0.379000
     26.5000    377.358   0.295000   0.387000
     26.5500    376.648   0.293000   0.396000
     26.6000    375.940   0.271000   0.402000
     26.6500    375.235   0.255000   0.414000
     26.7000    374.532   0.245000   0.435000
     26.7500    373.832   0.246000   0.453000
     26.8000    373.134   0.247000   0.476000
     26.8500    372.439   0.247000   0.487000
     26.9000    371.747   0.243000   0.489000
     26.9500    371.057   0.239000   0.497000
     27.0000    370.370   0.233000   0.504000
     27.0500    369.686   0.226000   0.528000
     27.1000    369.004   0.225000   0.540000
     27.1500    368.324   0.216000   0.544000
     27.2000    367.647   0.216000   0.557000
     27.2500    366.972   0.213000   0.566000
     27.3000    366.300   0.213000   0.589000
     27.3500    365.631   0.211000   0.600000
     27.4000    364.964   0.208000   0.601000
     27.4500    364.299   0.205000   0.608000
     27.5000    363.636   0.201000   0.617000
     27.5500    362.976   0.200000   0.643000
     27.6000    362.319   0.200000   0.651000
     27.6500    361.664   0.194000   0.651000
     27.7000    361.011   0.192000   0.660000
     27.7500    360.360   0.189000   0.670000
     27.8000    359.712   0.193000   0.695000
     27.8500    359.066   0.190000   0.701000
     27.9000    358.423   0.185000   0.704000
     27.9500    357.782   0.193000   0.711000
     28.0000    357.143   0.189000   0.710000
     28.0500    356.506   0.184000   0.730000
     28.1000    355.872   0.176000   0.742000
     28.1500    355.240   0.175000   0.742000
     28.2000    354.610   0.172000   0.742000
     28.2500    353.982   0.158000   0.758000
     28.3000    353.357   0.169000   0.786000
     28.3500    352.734   0.158000   0.785000
     28.4000    352.113   0.146000   0.802000
     28.4500    351.494   0.165000   0.799000
     28.5000    350.877   0.136000   0.820000
     28.5500    350.263   0.174000   0.848000
     28.6000    349.650   0.147000   0.841000
     28.6500    349.040   0.145000   0.857000
     28.7000    348.432   0.156000   0.866000
     28.7500    347.826   0.157000   0.871000
     28.8000    347.222   0.163000   0.899000
     28.8500    346.620   0.165000   0.900000
     28.9000    346.021   0.155000   0.897000
     28.9500    345.423   0.162000   0.906000
     29.0000    344.828   0.159000   0.910000
     29.0500    344.234   0.164000   0.939000
     29.1000    343.643   0.165000   0.942000
     29.1500    343.053   0.159000   0.934000
     29.2000    342.466   0.158000   0.942000
     29.2500    341.880   0.158000   0.946000
     29.3000    341.297   0.156000   0.977000
     29.3500    340.715   0.158000   0.986000
     29.4000    340.136   0.152000   0.982000
     29.4500    339.559   0.159000   0.988000
     29.5000    338.983   0.156000   0.993000
     29.5500    338.409   0.161000    1.02500
     29.6000    337.838   0.162000    1.03000
     29.6500    337.268   0.160000    1.01800
     29.7000    336.700   0.156000    1.02600
     29.7500    336.134   0.159000    1.03300
     29.8000    335.570   0.163000    1.06000
     29.8500    335.008   0.158000    1.05900
     29.9000    334.448   0.141000    1.06300
     29.9500    333.890   0.159000    1.07300
     30.0000    333.333   0.149000    1.07500
     30.0500    332.779   0.158000    1.11300
     30.1000    332.226   0.158000    1.11600
     30.1500    331.675   0.154000    1.11000
     30.2000    331.126   0.158000    1.11400
     30.2500    330.579   0.152000    1.12800
     30.3000    330.033   0.174000    1.15900
     30.3500    329.489   0.166000    1.15700
     30.4000    328.947   0.165000    1.14900
     30.4500    328.407   0.166000    1.15800
     30.5000    327.869   0.175000    1.15300
     30.5500    327.332   0.155000    1.17500
     30.6000    326.797   0.136000    1.22100
     30.6500    326.264   0.184000    1.22800
     30.7000    325.733   0.207000    1.20000
     30.7500    325.203   0.191000    1.16800
     30.8000    324.675   0.154000    1.21400
     30.8500    324.149   0.163000    1.24100
     30.9000    323.625   0.156000    1.23000
     30.9500    323.102   0.156000    1.26000
     31.0000    322.581   0.191000    1.26300
     31.0500    322.061   0.190000    1.28400
     31.1000    321.543   0.192000    1.29200
     31.1500    321.027   0.189000    1.27600
     31.2000    320.513   0.189000    1.28400
     31.2500    320.000   0.194000    1.29100
     31.3000    319.489   0.203000    1.32700
     31.3500    318.979   0.205000    1.33100
     31.4000    318.471   0.201000    1.31900
     31.4500    317.965   0.207000    1.32400
     31.5000    317.460   0.205000    1.33000
     31.5500    316.957   0.219000    1.37500
     31.6000    316.456   0.229000    1.37400
     31.6500    315.956   0.222000    1.35900
     31.7000    315.457   0.229000    1.35800
     31.7500    314.961   0.219000    1.37800
     31.8000    314.465   0.258000    1.41600
     31.8500    313.972   0.252000    1.40800
     31.9000    313.480   0.252000    1.38900
     31.9500    312.989   0.245000    1.39700
     32.0000    312.500   0.255000    1.40700
     32.0500    312.012   0.270000    1.44500
     32.1000    311.526   0.276000    1.44300
     32.1500    311.042   0.265000    1.43200
     32.2000    310.559   0.280000    1.44000
     32.2500    310.078   0.281000    1.44500
     32.3000    309.598   0.307000    1.49200
     32.3500    309.119   0.326000    1.48500
     32.4000    308.642   0.323000    1.46000
     32.4500    308.166   0.331000    1.45200
     32.5000    307.692   0.324000    1.45900
     32.5500    307.220   0.354000    1.49600
     32.6000    306.748   0.357000    1.49100
     32.6500    306.279   0.355000    1.46600
     32.7000    305.810   0.355000    1.47400
     32.7500    305.344   0.377000    1.47700
     32.8000    304.878   0.159000    3.10000E-02
